Velocity Profile of Model Wake

q Corr Factor,  0.950

Atm Press [Pa],  101325.000

Atm Temp [C],  17.000

Density [kg/m^3],  1.217

Average Tunnel Velocity [m/s],  20.411

Streamwise location [mm],161.9


Lateral Position [mm], Pitot/Static Vel [m/s], Pitot/Static Vel Stdev [m/s], Hot Wire Vel [m/s], Hot Wire Vel Stdev [m/s]
-60.000,  17.816,  0.123,  18.949,  0.384
-59.000,  17.831,  0.125,  19.079,  0.419
-58.000,  17.846,  0.132,  19.067,  0.432
-57.000,  17.793,  0.145,  19.015,  0.478
-56.000,  17.807,  0.168,  18.967,  0.528
-55.000,  17.836,  0.173,  19.022,  0.570
-54.000,  17.854,  0.199,  19.011,  0.583
-53.000,  17.831,  0.188,  18.996,  0.675
-52.000,  17.859,  0.206,  19.015,  0.707
-51.000,  17.809,  0.220,  18.840,  0.783
-50.000,  17.847,  0.290,  19.084,  0.875
-49.000,  17.817,  0.265,  19.013,  0.887
-48.000,  17.818,  0.289,  18.971,  0.940
-47.000,  17.855,  0.283,  19.001,  1.041
-46.000,  17.768,  0.319,  18.904,  1.087
-45.000,  17.836,  0.346,  18.960,  1.193
-44.000,  17.820,  0.368,  18.939,  1.313
-43.000,  17.744,  0.428,  18.894,  1.375
-42.000,  17.769,  0.460,  18.980,  1.440
-41.000,  17.682,  0.493,  18.859,  1.506
-40.000,  17.695,  0.492,  18.892,  1.618
-39.000,  17.636,  0.531,  18.737,  1.766
-38.000,  17.617,  0.566,  18.852,  1.729
-37.000,  17.560,  0.572,  18.719,  1.846
-36.000,  17.587,  0.582,  18.747,  1.879
-35.000,  17.578,  0.620,  18.797,  1.990
-34.000,  17.519,  0.658,  18.768,  2.113
-33.000,  17.497,  0.673,  18.713,  2.138
-32.000,  17.477,  0.694,  18.652,  2.286
-31.000,  17.436,  0.683,  18.588,  2.305
-30.000,  17.401,  0.742,  18.586,  2.427
-29.000,  17.300,  0.793,  18.544,  2.513
-28.000,  17.238,  0.768,  18.402,  2.566
-27.000,  17.229,  0.847,  18.422,  2.707
-26.000,  17.213,  0.838,  18.317,  2.776
-25.000,  17.129,  0.850,  18.319,  2.845
-24.000,  17.092,  0.915,  18.293,  2.924
-23.000,  17.054,  0.906,  18.177,  3.060
-22.000,  16.964,  0.966,  18.082,  3.185
-21.000,  16.799,  0.957,  17.903,  3.202
-20.000,  16.774,  0.978,  17.800,  3.306
-19.000,  16.565,  1.041,  17.691,  3.362
-18.000,  16.459,  1.105,  17.720,  3.425
-17.000,  16.357,  1.131,  17.561,  3.486
-16.000,  16.093,  1.156,  17.499,  3.575
-15.000,  16.000,  1.204,  17.358,  3.649
-14.000,  15.739,  1.242,  17.093,  3.671
-13.000,  15.786,  1.368,  16.988,  3.741
-12.000,  15.428,  1.406,  16.902,  3.836
-11.000,  15.448,  1.441,  16.766,  3.792
-10.000,  15.024,  1.580,  16.442,  3.878
-9.000,  14.724,  1.722,  16.380,  3.908
-8.000,  14.789,  1.705,  16.290,  3.894
-7.000,  14.577,  1.695,  16.128,  3.956
-6.000,  14.210,  1.888,  16.072,  3.909
-5.000,  14.053,  1.885,  16.087,  3.980
-4.000,  13.792,  1.967,  15.659,  3.939
-3.000,  13.856,  2.021,  15.818,  3.871
-2.000,  13.890,  1.915,  15.867,  3.873
-1.000,  13.772,  2.093,  15.560,  3.906
0.000,  13.964,  2.061,  15.811,  3.874
1.000,  13.850,  2.112,  15.540,  3.898
2.000,  13.906,  2.039,  15.712,  3.926
3.000,  13.786,  1.953,  15.769,  3.956
4.000,  14.126,  1.935,  15.791,  3.897
5.000,  13.973,  1.956,  15.660,  3.967
6.000,  14.172,  1.919,  15.986,  3.954
7.000,  14.529,  1.793,  16.261,  3.915
8.000,  14.560,  1.714,  16.242,  3.941
9.000,  14.777,  1.615,  16.576,  3.899
10.000,  14.993,  1.605,  16.626,  3.937
11.000,  15.208,  1.548,  16.823,  3.871
12.000,  15.416,  1.480,  17.052,  3.904
13.000,  15.628,  1.411,  17.126,  3.801
14.000,  16.025,  1.311,  17.345,  3.794
15.000,  16.042,  1.338,  17.420,  3.731
16.000,  16.391,  1.235,  17.559,  3.626
17.000,  16.337,  1.152,  17.592,  3.734
18.000,  16.512,  1.104,  17.797,  3.568
19.000,  16.762,  1.059,  17.890,  3.475
20.000,  16.708,  1.107,  18.094,  3.416
21.000,  16.935,  1.000,  18.114,  3.391
22.000,  17.060,  0.972,  18.367,  3.265
23.000,  17.181,  0.940,  18.467,  3.174
24.000,  17.234,  0.938,  18.429,  3.105
25.000,  17.248,  0.871,  18.429,  3.081
26.000,  17.397,  0.847,  18.672,  2.928
27.000,  17.385,  0.833,  18.650,  2.852
28.000,  17.479,  0.804,  18.834,  2.808
29.000,  17.573,  0.770,  18.865,  2.698
30.000,  17.637,  0.784,  19.034,  2.580
31.000,  17.650,  0.730,  19.057,  2.554
32.000,  17.633,  0.706,  19.108,  2.464
33.000,  17.696,  0.663,  19.042,  2.320
34.000,  17.756,  0.657,  19.119,  2.255
35.000,  17.691,  0.674,  19.167,  2.183
36.000,  17.734,  0.615,  19.170,  2.116
37.000,  17.831,  0.586,  19.325,  1.947
38.000,  17.817,  0.535,  19.266,  1.991
39.000,  17.943,  0.553,  19.432,  1.854
40.000,  18.016,  0.505,  19.564,  1.742
41.000,  17.976,  0.469,  19.485,  1.708
42.000,  18.014,  0.457,  19.596,  1.570
43.000,  18.088,  0.419,  19.609,  1.477
44.000,  18.151,  0.358,  19.649,  1.500
45.000,  18.095,  0.373,  19.683,  1.395
46.000,  18.129,  0.358,  19.823,  1.277
47.000,  18.077,  0.320,  19.647,  1.176
48.000,  18.119,  0.323,  19.780,  1.128
49.000,  18.102,  0.292,  19.813,  1.097
50.000,  18.210,  0.242,  19.901,  0.975
51.000,  18.145,  0.232,  19.752,  0.873
52.000,  18.189,  0.205,  19.790,  0.828
53.000,  18.176,  0.194,  19.830,  0.810
54.000,  18.220,  0.206,  19.873,  0.705
55.000,  18.194,  0.168,  19.884,  0.632
56.000,  18.109,  0.154,  19.783,  0.617
57.000,  18.178,  0.152,  19.845,  0.562
58.000,  18.125,  0.141,  19.668,  0.525
59.000,  18.132,  0.156,  19.770,  0.492
60.000,  18.154,  0.130,  19.750,  0.453
